Time Mean Temperature (K), p = 3.0 mb
ttav (180W to 180E, dlong = 9 deg; 90N to 90S, dlat = 7.5 deg)
      144.910      144.910      144.910      144.910      144.910      144.910
      144.910      144.910      144.910      144.910      144.910      144.910
      144.910      144.910      144.910      144.910      144.910      144.910
      144.910      144.910      144.910      144.910      144.910      144.910
      144.910      144.910      144.910      144.910      144.910      144.910
      144.910      144.910      144.910      144.910      144.910      144.910
      144.910      144.910      144.910      144.910      144.910
      146.290      146.430      146.510      146.530      146.640      146.680
      146.630      146.600      146.610      146.500      146.470      146.330
      146.270      146.120      146.000      145.790      145.670      145.760
      145.700      145.660      145.650      145.590      145.640      145.670
      145.710      145.680      145.770      145.770      145.910      146.000
      146.170      146.220      146.290      146.420      146.280      146.320
      146.190      146.150      146.090      146.290      146.290
      151.070      151.300      151.450      151.790      151.860      152.060
      151.910      151.900      151.700      151.520      151.280      150.970
      150.550      150.390      150.040      149.920      149.820      149.990
      150.030      150.230      150.470      150.860      151.310      151.640
      151.910      152.120      152.080      152.110      152.010      151.830
      151.540      151.400      150.990      150.790      150.530      150.440
      150.320      150.400      150.560      150.850      151.070
      159.680      160.140      160.650      160.990      161.160      161.260
      161.160      160.800      160.270      159.640      158.800      158.040
      157.310      156.810      156.410      156.420      156.710      157.390
      158.190      159.410      160.620      161.950      163.240      164.200
      164.740      165.060      164.900      164.570      163.880      162.960
      161.890      160.860      159.850      159.200      158.680      158.370
      158.160      158.420      158.750      159.180      159.680
      174.450      175.270      175.580      175.870      175.650      175.390
      174.710      173.990      172.950      171.960      170.410      169.360
      168.150      167.490      167.050      167.310      167.910      169.430
      171.360      173.810      176.130      178.420      180.260      181.740
      182.360      182.910      182.700      182.330      181.280      180.180
      178.410      176.760      174.830      173.530      172.420      172.020
      171.860      172.320      172.880      173.800      174.450
      192.170      192.530      192.660      192.430      191.340      190.700
      189.740      188.980      187.510      186.380      184.790      183.650
      182.390      181.720      182.450      183.810      185.380      187.340
      189.720      192.190      194.620      196.390      197.580      198.160
      198.390      198.400      198.230      197.970      197.510      196.760
      195.800      194.390      192.990      191.660      190.810      190.380
      190.280      190.420      190.920      191.600      192.170
      204.500      204.640      204.760      204.020      202.820      201.510
      200.290      197.920      196.800      195.610      195.110      194.450
      194.620      194.710      195.590      197.770      199.970      201.670
      203.430      205.050      206.140      206.780      206.740      206.480
      205.860      205.570      205.530      205.920      206.490      206.540
      206.450      206.180      205.720      205.130      204.650      204.220
      203.830      203.410      203.700      204.050      204.500
      210.110      210.510      211.010      210.710      209.420      208.840
      206.130      205.140      203.900      202.640      201.950      202.370
      202.800      203.940      204.270      206.410      207.920      208.710
      209.320      209.400      209.640      209.390      209.390      208.610
      208.940      209.090      209.220      208.650      209.950      210.160
      210.460      210.440      210.680      210.320      210.070      209.210
      208.460      208.020      208.460      209.330      210.110
      213.600      214.330      215.050      215.380      214.580      213.420
      211.790      210.680      208.900      208.030      208.120      208.030
      209.040      208.570      209.310      210.210      210.700      210.210
      209.410      209.780      210.330      211.060      211.480      212.160
      212.450      212.720      212.170      211.740      212.510      212.430
      212.150      212.140      212.170      212.150      211.760      211.310
      210.660      210.990      211.160      212.590      213.600
      213.770      214.410      215.090      215.380      215.190      214.780
      214.330      214.410      213.890      212.910      212.890      212.770
      213.060      212.050      212.030      211.830      211.390      210.930
      212.480      212.830      213.460      213.980      214.470      214.660
      214.640      214.370      214.460      213.840      214.570      213.730
      213.360      213.230      213.140      212.750      212.550      211.270
      211.920      212.040      211.640      212.960      213.770
      214.210      214.380      214.440      214.820      214.720      215.050
      215.660      216.100      216.750      217.450      215.970      216.040
      214.910      214.340      213.590      213.810      214.860      216.280
      214.760      213.480      214.200      214.820      215.070      215.470
      214.920      215.230      215.370      214.530      214.370      214.480
      213.870      213.580      213.250      212.880      211.610      211.640
      212.660      213.210      213.300      213.820      214.210
      214.310      213.740      213.790      213.420      213.280      213.870
      214.460      214.630      217.880      218.250      218.650      217.370
      216.470      215.970      216.360      217.310      215.510      216.360
      215.460      216.470      216.740      216.330      216.150      216.540
      215.250      215.510      215.520      214.880      214.800      215.190
      214.870      214.470      214.290      214.480      214.020      214.300
      214.590      214.510      214.540      214.530      214.310
      214.980      214.020      213.400      213.060      213.270      212.890
      211.700      215.290      218.680      219.610      218.490      217.950
      217.770      217.320      216.730      217.210      217.290      217.210
      218.210      217.550      217.920      217.860      217.350      215.770
      212.990      214.720      215.260      215.890      216.240      214.520
      213.650      213.950      214.650      214.840      215.440      216.170
      215.570      214.920      214.910      214.950      214.980
      214.370      214.350      213.970      213.790      214.040      212.960
      211.770      214.900      219.900      220.230      218.570      218.600
      217.360      216.280      215.360      215.910      216.310      216.380
      216.820      216.600      217.120      217.200      217.620      216.780
      214.340      214.870      215.400      214.600      215.170      216.200
      215.090      214.070      214.190      214.610      214.980      215.430
      214.740      213.980      214.170      214.230      214.370
      215.390      215.660      215.490      215.570      215.970      215.860
      215.810      218.660      223.520      223.940      220.860      220.940
      218.790      217.870      214.570      215.470      215.880      216.560
      216.730      217.050      216.910      217.360      217.480      216.840
      216.770      216.330      215.920      215.140      215.550      215.340
      215.350      215.140      214.140      215.000      214.870      214.790
      214.550      214.690      214.920      215.270      215.390
      217.420      217.540      218.000      218.700      217.820      217.940
      220.390      223.870      227.790      229.010      224.940      223.530
      222.640      221.430      218.120      217.540      218.150      218.740
      218.860      218.800      218.250      218.450      219.750      220.900
      218.380      217.320      215.730      215.440      217.050      216.800
      217.080      216.040      217.840      218.480      216.780      215.640
      216.140      217.480      217.380      217.180      217.420
      222.650      223.210      223.520      223.040      223.030      222.720
      222.720      224.790      226.810      228.660      226.450      225.880
      224.690      222.360      220.430      220.580      220.150      219.670
      219.550      219.770      219.240      218.930      217.930      218.700
      218.800      219.700      219.640      219.180      218.440      217.630
      217.430      217.220      216.320      219.460      219.900      218.160
      220.760      223.470      223.360      222.220      222.650
      222.940      223.150      223.510      223.940      224.250      224.140
      224.780      226.570      228.630      229.080      227.380      225.400
      223.490      222.000      220.930      221.170      221.020      221.420
      221.390      221.410      220.890      219.870      219.260      219.360
      221.100      221.920      222.560      222.670      222.030      221.650
      221.230      222.920      223.730      223.280      223.390      222.190
      222.200      222.590      223.170      222.550      222.940
      223.490      223.400      223.620      223.700      224.050      224.690
      225.410      226.520      227.450      227.470      225.720      224.610
      223.060      222.780      222.450      222.800      222.790      223.030
      222.960      223.030      222.290      221.850      221.460      220.960
      222.170      222.540      222.920      223.740      223.880      223.930
      223.080      223.810      224.990      223.860      223.900      223.570
      223.810      223.390      223.630      223.380      223.490
      221.760      221.440      220.760      221.040      221.410      222.850
      224.520      225.740      226.190      226.540      225.850      225.510
      224.650      224.830      224.310      224.540      224.260      224.450
      224.570      224.180      224.190      223.920      223.310      222.340
      222.200      224.680      224.900      224.850      224.780      224.520
      225.910      226.630      225.140      224.430      223.470      223.150
      222.400      222.420      222.100      222.230      221.760
      220.410      219.550      219.260      218.860      218.820      219.610
      220.740      222.640      224.030      224.100      224.640      224.100
      224.320      224.330      224.670      224.610      224.450      224.590
      223.950      224.450      224.440      224.860      224.990      225.890
      223.320      222.930      225.400      225.660      226.020      226.440
      226.280      224.810      223.970      223.720      223.690      224.060
      223.790      222.610      222.270      220.660      220.410
      220.030      218.420      218.300      217.250      216.210      214.990
      216.060      216.730      217.710      218.800      220.050      220.530
      221.620      221.780      222.240      222.340      222.390      223.420
      223.920      224.330      224.790      224.850      225.430      226.050
      225.150      222.810      222.510      223.120      224.220      224.390
      224.220      224.080      224.080      224.190      224.100      224.130
      223.860      223.000      222.300      221.060      220.030
      213.280      213.580      211.910      211.860      210.140      209.590
      209.880      210.000      210.820      211.780      212.570      213.780
      214.230      215.070      215.690      216.110      216.270      217.060
      217.300      217.730      217.420      218.250      218.170      218.280
      217.450      217.020      217.570      218.550      219.280      219.030
      219.180      219.130      219.190      218.720      218.280      217.920
      216.340      215.850      215.090      214.100      213.280
      208.880      208.890      208.370      208.200      207.190      206.920
      206.520      206.680      207.250      207.350      207.930      208.200
      208.670      208.960      209.290      209.940      210.660      211.130
      211.500      211.610      211.650      211.720      211.590      211.460
      211.190      211.220      211.550      211.770      211.860      211.930
      212.030      211.770      211.470      210.880      210.600      210.160
      209.860      209.650      209.450      209.030      208.880
      206.690      206.690      206.690      206.690      206.690      206.690
      206.690      206.690      206.690      206.690      206.690      206.690
      206.690      206.690      206.690      206.690      206.690      206.690
      206.690      206.690      206.690      206.690      206.690      206.690
      206.690      206.690      206.690      206.690      206.690      206.690
      206.690      206.690      206.690      206.690      206.690      206.690
      206.690      206.690      206.690      206.690      206.690
 
Time Mean Temperature (K), p = 0.5 mb
ttav (180W to 180E, dlong = 9 deg; 90N to 90S, dlat = 7.5 deg)
      134.950      134.950      134.950      134.950      134.950      134.950
      134.950      134.950      134.950      134.950      134.950      134.950
      134.950      134.950      134.950      134.950      134.950      134.950
      134.950      134.950      134.950      134.950      134.950      134.950
      134.950      134.950      134.950      134.950      134.950      134.950
      134.950      134.950      134.950      134.950      134.950      134.950
      134.950      134.950      134.950      134.950      134.950
      137.750      137.560      137.370      137.170      137.170      136.860
      136.900      136.900      136.820      136.890      137.000      137.120
      137.080      137.230      137.220      137.320      137.530      137.380
      137.600      137.480      137.530      137.560      137.620      137.330
      137.210      137.260      137.170      137.340      137.270      137.850
      138.070      137.710      137.930      138.020      137.970      138.120
      138.080      138.200      138.140      138.010      137.750
      138.100      138.220      138.420      138.060      138.040      137.840
      137.680      137.730      137.620      137.370      137.050      137.410
      137.590      137.760      137.910      138.250      138.410      138.360
      138.850      139.320      139.700      140.490      140.830      141.060
      141.330      141.540      141.280      141.220      140.900      140.460
      139.930      139.490      139.020      138.800      138.580      138.730
      138.680      138.670      138.470      138.200      138.100
      147.630      147.960      148.030      147.970      147.700      147.270
      146.410      145.690      144.660      143.540      142.620      141.940
      141.460      141.330      141.750      142.650      143.810      145.350
      147.210      149.250      151.230      153.160      154.860      156.190
      157.180      158.040      158.190      158.100      157.410      156.370
      154.840      153.080      151.280      149.980      148.930      148.110
      147.460      147.270      147.160      147.330      147.630
      167.340      167.260      167.100      166.700      166.450      165.790
      164.840      163.680      162.360      161.040      159.990      158.790
      157.910      157.540      158.020      159.740      161.910      164.050
      166.590      168.960      170.850      172.250      173.510      174.290
      175.090      175.530      175.770      175.690      175.660      175.130
      174.630      173.790      173.060      172.080      170.990      169.800
      168.680      167.980      167.620      167.440      167.340
      175.850      175.450      174.660      174.340      173.750      173.460
      172.760      172.260      171.580      171.370      171.100      171.020
      171.110      171.630      172.060      173.330      174.990      176.660
      177.740      178.770      178.890      179.060      179.030      179.140
      179.130      179.380      179.270      179.730      180.100      180.530
      180.940      181.770      181.780      181.790      181.280      180.410
      179.040      178.170      177.210      176.610      175.850
      179.130      178.360      177.600      177.140      177.150      176.830
      176.480      176.010      176.010      176.320      176.990      177.880
      178.890      179.730      180.570      180.190      181.070      181.440
      181.640      181.240      180.790      180.180      179.870      179.900
      180.190      180.430      180.370      180.860      181.030      181.700
      182.610      183.400      184.050      184.170      183.940      183.100
      182.020      181.230      180.230      179.510      179.130
      179.080      178.070      177.550      176.960      177.460      177.580
      176.770      177.680      178.540      178.760      179.460      180.320
      181.700      182.020      182.630      181.960      181.920      181.850
      181.240      179.920      179.450      178.850      178.800      178.950
      179.200      179.210      179.750      179.590      179.970      180.400
      181.690      182.150      182.620      182.600      182.320      181.360
      181.410      180.900      180.280      179.360      179.080
      176.600      176.500      176.130      175.560      175.740      176.360
      176.330      177.710      177.970      179.300      179.410      180.650
      181.050      181.520      181.600      180.710      180.510      179.430
      178.050      177.550      176.890      176.340      176.490      176.770
      176.540      176.460      177.270      178.270      177.920      178.730
      179.310      180.000      180.050      180.080      179.650      179.600
      179.230      179.260      178.270      177.710      176.600
      175.140      176.030      175.730      175.570      175.560      176.340
      176.100      176.600      176.160      177.700      177.620      178.940
      178.860      179.180      177.720      177.770      176.420      175.480
      174.230      173.880      173.940      174.000      174.540      174.660
      174.600      174.440      175.840      175.550      175.810      176.870
      177.420      177.290      177.330      177.270      177.030      177.180
      177.430      176.580      176.630      176.360      175.140
      175.210      174.890      174.650      175.210      175.320      175.080
      175.290      175.360      176.080      176.470      176.360      176.310
      175.590      175.560      175.420      174.090      173.570      172.170
      172.910      172.360      171.840      171.310      172.150      172.400
      171.700      172.380      173.040      174.600      173.870      174.320
      175.030      173.850      173.540      175.560      176.200      176.140
      176.190      176.350      175.620      175.400      175.210
      174.620      175.070      175.110      174.970      175.240      174.740
      175.360      173.870      174.970      175.620      174.540      174.990
      174.180      173.860      173.150      172.200      171.690      171.410
      170.820      170.830      169.850      170.130      170.920      170.940
